#Acq. time (s)=	600
#Accumulations=	2
#Range=	Off
#Autofocus=	Off
#AutoExposure=	Off
#Spike filter=	Multiple accum.
#Delay time (s)=	0
#Binning=	1
#Readout mode=	Signal
#DeNoise=	Off
#ICS correction=	Off
#Dark correction=	Off
#Inst. Process=	Off
#Detector Gain=	Best Dynamic Range
#Detector ADC=	20 kHz       
#Detector temperature (°C)=	-129.25
#Instrument=	LabRAM HR Evol
#Detector=	Synapse/Symphony II
#Objective=	x50_VIS_LWD
#Grating=	1800 (450-850nm)
#ND Filter=	25%
#Laser=	532nm_Edge
#Spectro (cm-¹)=	279.986
#Hole=	150.001
#Range=	Visible
#AFM=	Off
#Collection=	Microscope
#StageXY=	Manual stage
#StageZ=	Marzhauser
#X (µm)=	0
#Y (µm)=	0
#Z (µm)=	524.65
#Full time(mm:ss)=	20:01
#Project=	Caps
#Sample=	Caps
#Site=	Caps
#Title=	CaMn2Bi2_2
#Remark=	
#Date=	02.07.2023 21:03
#End Platform Temp (K)=	179.999
#Polarizer=	109.999818
#Analyzer=	0
#Acquired=	02.07.2023 21:03:08
#AxisType[0]=Intens
#AxisUnit[0]=Cnt/sec
#AxisType[1]=Spectr
#AxisUnit[1]=1/cm
533.589	0.103333
533.102	0.0783333
532.614	0.095
532.127	0.0983333
531.64	0.0933333
531.151	0.0916667
530.665	0.095
530.176	0.0866667
529.689	0.0883333
529.2	0.0916667
528.713	0.0883333
528.224	0.09
527.737	0.0966667
527.249	0.0983333
526.762	0.0933333
526.275	0.0883333
525.785	0.0833333
525.298	0.1
524.809	0.09
524.32	0.0933333
523.833	0.095
523.344	0.09
522.857	0.106667
522.367	0.0983333
521.88	0.095
521.391	0.108333
520.904	0.09
520.414	0.0883333
519.927	0.111667
519.438	0.095
518.948	0.0916667
518.461	0.103333
517.971	0.0833333
517.484	0.0966667
516.994	0.0933333
516.505	0.0933333
516.017	0.0966667
515.527	0.0966667
515.038	0.095
514.55	0.0983333
514.061	0.0933333
513.573	0.0883333
513.083	0.0983333
512.593	0.0883333
512.106	0.0983333
511.616	0.103333
511.126	0.0966667
510.638	0.095
510.148	0.0883333
509.658	0.101667
509.168	0.09
508.68	0.103333
508.19	0.095
507.7	0.1
507.212	0.095
506.722	0.103333
506.232	0.0983333
505.742	0.0916667
505.254	0.105
504.764	0.108333
504.273	0.0983333
503.783	0.0983333
503.295	0.103333
502.805	0.0983333
502.314	0.105
501.824	0.095
501.334	0.101667
500.845	0.101667
500.355	0.106667
499.864	0.1
499.374	0.106667
498.883	0.105
498.395	0.0983333
497.904	0.0966667
497.414	0.101667
496.923	0.106667
496.433	0.0916667
495.942	0.0983333
495.451	0.106667
494.963	0.103333
494.472	0.108333
493.981	0.106667
493.49	0.115
492.999	0.106667
492.509	0.108333
492.018	0.106667
491.527	0.118333
491.036	0.118333
490.545	0.11
490.056	0.11
489.565	0.105
489.074	0.12
488.583	0.095
488.092	0.106667
487.601	0.101667
487.11	0.0983333
486.618	0.116667
486.127	0.106667
485.636	0.11
485.145	0.106667
484.654	0.106667
484.162	0.105
483.671	0.111667
483.18	0.106667
482.688	0.103333
482.197	0.103333
481.705	0.125
481.214	0.105
480.722	0.113333
480.231	0.103333
479.739	0.116667
479.248	0.111667
478.756	0.11
478.265	0.101667
477.771	0.12
477.279	0.113333
476.788	0.108333
476.296	0.111667
475.804	0.113333
475.312	0.108333
474.821	0.111667
474.329	0.116667
473.837	0.113333
473.345	0.121667
472.851	0.126667
472.359	0.116667
471.867	0.13
471.375	0.121667
470.883	0.108333
470.391	0.126667
469.897	0.13
469.405	0.136667
468.913	0.131667
468.421	0.138333
467.929	0.15
467.436	0.161667
466.942	0.16
466.45	0.183333
465.958	0.193333
465.465	0.188333
464.971	0.186667
464.479	0.201667
463.986	0.21
463.494	0.191667
463.001	0.205
462.507	0.196667
462.014	0.18
461.522	0.173333
461.027	0.171667
460.535	0.156667
460.042	0.131667
459.55	0.146667
459.055	0.146667
458.562	0.131667
458.069	0.11
457.575	0.126667
457.082	0.121667
456.589	0.121667
456.094	0.111667
455.602	0.111667
455.109	0.111667
454.614	0.116667
454.121	0.126667
453.628	0.118333
453.133	0.118333
452.64	0.118333
452.147	0.108333
451.652	0.111667
451.159	0.113333
450.664	0.106667
450.17	0.113333
449.677	0.113333
449.182	0.12
448.689	0.101667
448.194	0.118333
447.7	0.115
447.207	0.113333
446.712	0.113333
446.218	0.108333
445.723	0.106667
445.23	0.11
444.734	0.11
444.241	0.106667
443.745	0.118333
443.252	0.108333
442.756	0.115
442.263	0.111667
441.767	0.113333
441.273	0.125
440.778	0.116667
440.284	0.0983333
439.788	0.115
439.295	0.115
438.799	0.111667
438.305	0.1
437.809	0.106667
437.315	0.115
436.819	0.103333
436.326	0.105
435.83	0.106667
435.334	0.115
434.84	0.113333
434.344	0.118333
433.85	0.111667
433.354	0.123333
432.858	0.115
432.363	0.115
431.867	0.115
431.373	0.116667
430.877	0.118333
430.381	0.113333
429.887	0.118333
429.39	0.111667
428.894	0.116667
428.4	0.118333
427.903	0.113333
427.407	0.121667
426.912	0.111667
426.416	0.106667
425.919	0.123333
425.425	0.106667
424.928	0.12
424.432	0.11
423.937	0.115
423.441	0.111667
422.944	0.118333
422.45	0.108333
421.953	0.115
421.456	0.118333
420.959	0.115
420.465	0.116667
419.968	0.126667
419.471	0.12
418.974	0.101667
418.479	0.105
417.982	0.115
417.485	0.105
416.989	0.123333
416.492	0.113333
415.997	0.115
415.5	0.108333
415.002	0.108333
414.505	0.118333
414.008	0.12
413.513	0.116667
413.016	0.118333
412.519	0.111667
412.022	0.0933333
411.524	0.103333
411.027	0.116667
410.532	0.115
410.034	0.12
409.537	0.108333
409.04	0.118333
408.542	0.121667
408.045	0.1
407.547	0.105
407.05	0.106667
406.552	0.116667
406.057	0.11
405.559	0.106667
405.062	0.12
404.564	0.116667
404.066	0.118333
403.569	0.12
403.071	0.11
402.573	0.105
402.075	0.106667
401.577	0.126667
401.08	0.116667
400.582	0.106667
400.084	0.105
399.586	0.103333
399.088	0.106667
398.59	0.103333
398.092	0.128333
397.594	1.385
397.096	0.12
396.598	0.121667
396.1	0.105
395.602	0.135
395.104	0.121667
394.605	0.111667
394.107	0.11
393.609	0.115
393.111	0.118333
392.612	0.116667
392.114	0.116667
391.616	0.118333
391.117	0.116667
390.619	0.113333
390.119	0.113333
389.62	0.118333
389.122	0.11
388.623	0.113333
388.125	0.108333
387.626	0.126667
387.128	0.113333
386.629	0.113333
386.128	0.11
385.63	0.115
385.131	0.11
384.632	0.106667
384.133	0.121667
383.635	0.116667
383.136	0.12
382.635	0.0983333
382.136	0.123333
381.637	0.118333
381.138	0.118333
380.639	0.12
380.138	0.12
379.639	0.125
379.14	0.121667
378.641	0.11
378.142	0.12
377.641	0.113333
377.142	0.12
376.643	0.123333
376.144	0.126667
375.642	0.12
375.143	0.125
374.644	0.116667
374.145	0.115
373.643	0.118333
373.144	0.125
372.644	0.121667
372.143	0.133333
371.644	0.121667
371.144	0.141667
370.643	0.12
370.143	0.103333
369.644	0.123333
369.142	0.136667
368.642	0.123333
368.143	0.118333
367.641	0.126667
367.141	0.12
366.642	0.126667
366.14	0.116667
365.64	0.135
365.14	0.125
364.638	0.123333
364.139	0.121667
363.637	0.126667
363.137	0.121667
362.637	0.146667
362.135	0.136667
361.635	0.125
361.133	0.115
360.633	0.128333
360.133	0.126667
359.631	0.116667
359.131	0.118333
358.628	0.128333
358.128	0.126667
357.626	0.138333
357.126	0.126667
356.623	0.138333
356.123	0.143333
355.621	0.15
355.12	0.146667
354.618	0.138333
354.118	0.138333
353.615	0.138333
353.115	0.128333
352.612	0.135
352.112	0.128333
351.609	0.133333
351.109	0.136667
350.606	0.136667
350.105	0.126667
349.603	0.138333
349.102	0.138333
348.599	0.143333
348.099	0.13
347.596	0.131667
347.093	0.121667
346.592	0.126667
346.089	0.138333
345.589	0.121667
345.086	0.131667
344.583	0.13
344.082	0.145
343.579	0.128333
343.078	0.125
342.575	0.133333
342.072	0.136667
341.57	0.123333
341.067	0.131667
340.564	0.13
340.063	0.11
339.56	0.136667
339.056	0.115
338.555	0.14
338.052	0.133333
337.549	0.125
337.047	0.123333
336.544	0.115
336.04	0.128333
335.539	0.125
335.036	0.121667
334.532	0.133333
334.029	0.135
333.527	0.133333
333.023	0.13
332.52	0.128333
332.016	0.125
331.515	0.111667
331.011	0.118333
330.507	0.113333
330.003	0.126667
329.502	0.123333
328.998	0.13
328.494	0.126667
327.99	0.126667
327.488	0.126667
326.984	0.121667
326.48	0.126667
325.976	0.133333
325.472	0.13
324.968	0.121667
324.466	0.115
323.962	0.116667
323.458	0.126667
322.954	0.13
322.45	0.135
321.946	0.123333
321.444	0.128333
320.939	0.125
320.435	0.128333
319.931	0.115
319.426	0.136667
318.922	0.133333
318.418	0.118333
317.913	0.118333
317.409	0.131667
316.906	0.133333
316.402	0.133333
315.897	0.12
315.393	0.133333
314.888	0.128333
314.384	0.135
313.879	0.12
313.374	0.135
312.87	0.113333
312.365	0.126667
311.86	0.133333
311.355	0.118333
310.85	0.133333
310.346	0.125
309.841	0.135
309.336	0.131667
308.831	0.128333
308.326	0.12
307.821	0.13
307.316	0.135
306.811	0.133333
306.306	0.14
305.801	0.143333
305.296	0.135
304.791	0.14
304.285	0.14
303.78	0.13
303.275	0.13
302.77	0.138333
302.264	0.135
301.759	0.146667
301.254	0.121667
300.746	0.138333
300.241	0.145
299.736	0.121667
299.23	0.126667
298.725	0.15
298.219	0.145
297.714	0.161667
297.208	0.146667
296.7	0.133333
296.195	0.148333
295.689	0.135
295.184	0.123333
294.678	0.148333
294.172	0.13
293.666	0.146667
293.159	0.135
292.653	0.143333
292.147	0.14
291.641	0.138333
291.135	0.14
290.627	0.148333
290.121	0.131667
289.615	0.135
289.109	0.13
288.603	0.138333
288.095	0.148333
287.589	0.143333
287.083	0.143333
286.577	0.14
286.068	0.138333
285.562	0.14
285.056	0.145
284.55	0.14
284.041	0.131667
283.535	0.138333
283.029	0.155
282.52	0.133333
282.014	0.143333
281.508	0.143333
281.001	0.146667
280.493	0.146667
279.986	0.131667
279.48	0.151667
278.971	0.143333
278.464	0.131667
277.958	0.143333
277.449	0.155
276.942	0.14
276.436	0.145
275.927	0.15
275.42	0.141667
274.911	0.146667
274.404	0.138333
273.898	0.143333
273.389	0.156667
272.882	0.151667
272.375	0.15
271.866	0.143333
271.359	0.128333
270.85	0.143333
270.343	0.14
269.834	0.138333
269.327	0.15
268.819	0.138333
268.31	0.143333
267.803	0.153333
267.294	0.145
266.787	0.148333
266.277	0.14
265.77	0.151667
265.261	0.14
264.753	0.145
264.244	0.153333
263.736	0.151667
263.227	0.14
262.719	0.143333
262.21	0.146667
261.702	0.143333
261.193	0.156667
260.685	0.141667
260.176	0.14
259.668	0.15
259.158	0.148333
258.651	0.145
258.141	0.145
257.633	0.148333
257.123	0.14
256.613	0.133333
256.105	0.135
255.596	0.136667
255.088	0.14
254.578	0.133333
254.07	0.136667
253.56	0.135
253.05	0.138333
252.542	0.136667
252.032	0.15
251.521	0.138333
251.013	0.133333
250.503	0.151667
249.995	0.148333
249.485	0.135
248.974	0.138333
248.466	0.145
247.956	0.141667
247.446	0.156667
246.937	0.148333
246.427	0.143333
245.916	0.133333
245.408	0.141667
244.897	0.126667
244.387	0.143333
243.876	0.143333
243.368	0.143333
242.857	0.138333
242.346	0.146667
241.838	0.133333
241.327	0.146667
240.816	0.141667
240.306	0.143333
239.797	0.14
239.286	0.136667
238.775	0.148333
238.264	0.126667
237.756	0.141667
237.245	0.13
236.734	0.13
236.223	0.146667
235.712	0.153333
235.203	0.141667
234.692	0.15
234.181	0.155
233.669	0.14
233.158	0.158333
232.649	0.155
232.138	0.153333
231.627	0.143333
231.115	0.145
230.604	0.15
230.093	0.135
229.581	0.158333
229.072	0.15
228.561	0.163333
228.049	0.155
227.538	0.138333
227.026	0.156667
226.515	0.163333
226.003	0.145
225.492	0.15
224.98	0.148333
224.471	0.166667
223.959	0.156667
223.447	0.155
222.935	0.148333
222.424	0.15
221.912	0.146667
221.4	0.163333
220.888	0.161667
220.376	0.166667
219.864	0.166667
219.353	0.151667
218.841	0.158333
218.329	0.141667
217.817	0.165
217.305	0.158333
216.793	0.165
216.28	0.163333
215.768	0.17
215.256	0.166667
214.744	0.188333
214.232	0.173333
213.72	0.17
213.207	0.168333
212.695	0.168333
212.183	0.17
211.67	0.163333
211.158	0.181667
210.646	0.185
210.133	0.166667
209.621	0.168333
209.108	0.17
208.596	0.161667
208.081	0.176667
207.568	0.166667
207.056	0.175
206.543	0.183333
206.031	0.168333
205.518	0.176667
205.005	0.178333
204.492	0.175
203.98	0.18
203.465	0.165
202.952	0.175
202.439	0.176667
201.926	0.175
201.413	0.166667
200.9	0.18
200.387	0.166667
199.872	0.17
199.359	0.188333
198.846	0.16
198.333	0.171667
197.82	0.17
197.305	0.18
196.792	0.158333
196.278	0.165
195.765	0.17
195.252	0.145
194.736	0.161667
194.223	0.165
193.71	0.151667
193.196	0.165
192.681	0.18
192.167	0.16
191.654	0.15
191.141	0.17
190.625	0.153333
190.111	0.163333
189.598	0.163333
189.082	0.165
188.569	0.158333
188.055	0.166667
187.541	0.158333
187.025	0.15
186.512	0.161667
185.998	0.16
185.482	0.155
184.968	0.17
184.454	0.168333
183.938	0.161667
183.424	0.153333
182.91	0.153333
182.394	0.16
181.88	0.153333
181.366	0.156667
180.85	0.155
180.336	0.17
179.82	0.171667
179.306	0.158333
178.792	0.153333
178.275	0.146667
177.761	0.153333
177.245	0.155
176.73	0.168333
176.216	0.15
175.7	0.158333
175.185	0.168333
174.669	0.146667
174.154	0.156667
173.638	0.165
173.123	0.165
172.609	0.163333
172.092	0.161667
171.578	0.176667
171.061	0.165
170.546	0.161667
170.03	0.156667
169.515	0.171667
168.998	0.143333
168.483	0.153333
167.967	0.158333
167.452	0.141667
166.935	0.155
166.42	0.161667
165.903	0.158333
165.388	0.16
164.871	0.168333
164.354	0.155
163.839	0.165
163.322	0.18
162.807	0.161667
162.29	0.171667
161.774	0.175
161.257	0.166667
160.742	0.171667
160.225	0.198333
159.707	0.218333
159.192	0.223333
158.675	0.255
158.159	0.248333
157.642	0.256667
157.125	0.253333
156.609	0.25
156.092	0.255
155.574	0.236667
155.059	0.22
154.541	0.183333
154.023	0.183333
153.508	0.203333
152.99	0.196667
152.474	0.175
151.957	0.163333
151.439	0.158333
150.921	0.178333
150.405	0.161667
149.887	0.163333
149.37	0.16
148.854	0.168333
148.336	0.16
147.818	0.163333
147.302	0.163333
146.784	0.138333
146.266	0.175
145.748	0.161667
145.232	0.145
144.713	0.151667
144.195	0.151667
143.677	0.158333
143.161	0.168333
142.643	0.156667
142.124	0.163333
141.606	0.168333
141.09	0.161667
140.571	0.193333
140.053	0.196667
139.534	0.181667
139.016	0.155
138.5	0.158333
137.981	0.148333
137.462	0.155
136.944	0.148333
136.425	0.151667
135.907	0.168333
135.39	0.166667
134.871	0.165
134.352	0.155
133.834	0.178333
133.315	0.166667
132.796	0.165
132.277	0.183333
131.76	0.19
131.242	0.168333
130.723	0.186667
130.204	0.198333
129.685	0.191667
129.166	0.186667
128.647	0.171667
128.127	0.176667
127.608	0.185
127.089	0.171667
126.57	0.175
126.053	0.191667
125.534	0.19
125.014	0.191667
124.495	0.186667
123.976	0.218333
123.456	0.185
122.937	0.18
122.418	0.188333
121.898	0.18
121.379	0.19
120.859	0.178333
120.34	0.175
119.82	0.195
119.301	0.198333
118.781	0.211667
118.261	0.211667
117.742	0.2
117.222	0.188333
116.702	0.225
116.183	0.196667
115.663	0.213333
115.143	0.215
114.623	0.216667
114.103	0.223333
113.583	0.206667
113.061	0.203333
112.541	0.215
112.021	0.211667
111.501	0.218333
110.981	0.221667
110.461	0.226667
109.941	0.241667
109.421	0.308333
108.901	0.371667
108.381	0.368333
107.858	0.38
107.338	0.4
106.818	0.385
106.297	0.396667
105.777	0.416667
105.257	0.433333
104.736	0.47
104.214	0.478333
103.693	0.585
103.173	0.611667
102.652	0.698333
102.132	0.78
101.611	0.83
101.088	0.906667
100.568	0.941667
100.047	0.925
99.5265	0.835
99.0058	0.776667
98.4829	0.705
97.9622	0.625
97.4414	0.55
96.9206	0.528333
96.3997	0.518333
95.8767	0.5
95.3558	0.438333
94.8348	0.386667
94.3139	0.386667
93.7907	0.413333
93.2697	0.413333
92.7486	0.465
92.2254	0.44
91.7043	0.436667
91.1831	0.386667
90.662	0.351667
90.1386	0.335
89.6174	0.341667
89.0961	0.336667
88.5727	0.346667
88.0514	0.33
87.53	0.333333
87.0065	0.341667
86.4851	0.341667
85.9637	0.363333
85.4401	0.405
84.9186	0.455
84.397	0.46
83.8733	0.403333
83.3518	0.386667
82.8301	0.368333
82.3064	0.378333
81.7847	0.393333
81.2609	0.42
80.7391	0.403333
80.2174	0.461667
79.6935	0.441667
79.1716	0.443333
78.6477	0.46
78.1258	0.511667
77.6039	0.541667
77.0798	0.608333
76.5578	0.606667
76.0337	0.548333
75.5117	0.493333
74.9875	0.446667
74.4654	0.435
73.9412	0.451667
73.419	0.396667
72.8969	0.39
72.3725	0.338333
71.8503	0.311667
71.3259	0.27
70.8036	0.258333
70.2792	0.263333
69.7568	0.235
69.2323	0.245
68.7099	0.25
68.1854	0.211667
67.6629	0.183333
67.1383	0.176667
66.6136	0.156667
66.0911	0.146667
65.5664	0.145
65.0437	0.135
64.519	0.146667
63.9963	0.136667
63.4715	0.146667
62.9488	0.141667
62.4239	0.156667
61.8989	0.193333
61.3761	0.196667
60.8512	0.171667
60.3283	0.156667
59.8032	0.113333
59.2782	0.106667
58.7552	0.111667
58.2301	0.0966667
57.7071	0.108333
57.1819	0.121667
56.6567	0.148333
56.1336	0.115
55.6083	0.0816667
55.083	0.0783333
54.5598	0.0616667
54.0344	0.0683333
53.509	0.07
52.9858	0.055
52.4603	0.0583333
51.9348	0.0533333
51.4115	0.0466667
50.8859	0.0433333
50.3604	0.0433333
49.8369	0.0466667
49.3113	0.0383333
48.7856	0.0466667
48.2621	0.0333333
47.7364	0.0516667
47.2106	0.0433333
46.6849	0.045
46.1612	0.0366667
45.6354	0.0483333
45.1095	0.0416667
44.5836	0.0433333
44.0598	0.0433333
43.5339	0.0416667
43.0079	0.0433333
42.4819	0.05
41.958	0.04
41.4319	0.0466667
40.9058	0.0383333
40.3797	0.0466667
39.8535	0.0366667
39.3295	0.0566667
38.8033	0.0483333
38.277	0.0466667
37.7508	0.0466667
37.2245	0.0533333
36.7003	0.0466667
36.1739	0.0466667
35.6475	0.0566667
35.1211	0.05
34.5946	0.0516667
34.0681	0.055
33.5438	0.0533333
33.0172	0.0633333
32.4907	0.06
31.9641	0.0616667
31.4374	0.0633333
30.9108	0.0533333
30.3841	0.0616667
29.8574	0.07
29.3306	0.06
28.806	0.0683333
28.2792	0.07
27.7524	0.07
27.2255	0.0683333
26.6986	0.075
26.1717	0.0816667
25.6447	0.085
25.1177	0.0766667
24.5907	0.0816667
24.0637	0.0983333
23.5366	0.0966667
23.0095	0.101667
22.4824	0.106667
21.9552	0.1
21.428	0.11
20.9008	0.105
20.3735	0.121667
19.8462	0.131667
19.3189	0.131667
18.7916	0.13
18.2642	0.151667
17.7368	0.151667
17.2094	0.17
16.6819	0.186667
16.1544	0.213333
15.6269	0.258333
15.0994	0.261667
14.5718	0.308333
